[MS Spectrum]
# of Peaks	422
Raw Spectrum	13.160 (scan : 3049)
Background	No Background Spectrum
Base Peak	m/z 215.90 (Inten : 99,982)
Event#	1
m/z	Absolute Intensity	Relative Intensity
29.00	1903	1.90
30.00	382	0.38
31.00	471	0.47
32.00	305	0.31
33.00	38	0.04
34.00	27	0.03
36.00	126	0.13
37.00	1902	1.90
38.00	4510	4.51
39.00	4012	4.01
40.00	786	0.79
41.00	1474	1.47
41.95	429	0.43
43.00	1391	1.39
44.00	78	0.08
45.00	161	0.16
46.00	39	0.04
47.00	16	0.02
48.00	70	0.07
49.00	1042	1.04
50.00	7052	7.05
51.00	17954	17.96
52.00	2410	2.41
53.00	4004	4.00
54.00	494	0.49
55.00	983	0.98
56.00	196	0.20
57.00	228	0.23
58.00	202	0.20
59.00	2002	2.00
60.00	417	0.42
61.00	3916	3.92
62.00	11282	11.28
63.00	31292	31.30
64.00	6425	6.43
65.00	11321	11.32
66.00	13703	13.71
67.00	1134	1.13
68.05	880	0.88
68.95	10188	10.19
70.00	382	0.38
71.00	130	0.13
72.00	76	0.08
73.00	1026	1.03
74.00	4249	4.25
75.00	4476	4.48
76.05	1461	1.46
77.00	45847	45.86
78.05	9383	9.38
79.00	31868	31.87
80.00	1966	1.97
80.95	978	0.98
82.00	196	0.20
83.00	156	0.16
84.00	10	0.01
85.00	81	0.08
86.00	52	0.05
87.00	22	0.02
88.00	8	0.01
89.00	102	0.10
90.00	610	0.61
91.00	6649	6.65
92.00	6930	6.93
93.00	2300	2.30
94.00	9162	9.16
95.00	865	0.87
96.00	92	0.09
97.00	29	0.03
98.00	36	0.04
100.00	3	0.00
101.00	27	0.03
102.00	8	0.01
103.00	29	0.03
104.00	258	0.26
105.00	727	0.73
106.00	1004	1.00
107.00	17761	17.76
108.05	87437	87.45
109.05	23657	23.66
110.05	1596	1.60
111.00	135	0.14
112.00	16	0.02
113.00	13	0.01
114.00	29	0.03
115.00	38	0.04
115.90	199	0.20
116.95	952	0.95
117.90	273	0.27
118.95	1278	1.28
119.90	130	0.13
121.00	724	0.72
122.00	10642	10.64
123.00	980	0.98
124.00	103	0.10
125.00	30	0.03
126.00	36	0.04
128.00	121	0.12
128.90	601	0.60
129.90	356	0.36
130.90	735	0.74
131.90	252	0.25
132.90	263	0.26
133.90	19	0.02
135.00	506	0.51
136.00	727	0.73
137.05	1185	1.19
138.00	257	0.26
139.00	52	0.05
140.00	65	0.07
140.90	257	0.26
141.90	873	0.87
142.95	6235	6.24
143.95	1174	1.17
144.95	6301	6.30
145.95	386	0.39
146.90	255	0.26
147.90	22	0.02
148.90	27	0.03
149.90	6	0.01
150.90	11	0.01
151.90	46	0.05
152.90	62	0.06
153.90	134	0.13
154.95	1517	1.52
155.95	11876	11.88
156.95	4896	4.90
157.90	12508	12.51
158.95	3280	3.28
159.90	1434	1.43
160.90	132	0.13
161.90	10	0.01
162.90	24	0.02
163.90	13	0.01
164.90	30	0.03
165.90	27	0.03
166.90	10	0.01
167.90	50	0.05
168.90	82	0.08
169.90	3207	3.21
170.90	1806	1.81
171.90	3529	3.53
172.90	9602	9.60
173.90	1041	1.04
174.90	7529	7.53
175.90	561	0.56
176.90	46	0.05
177.90	19	0.02
179.90	2	0.00
180.90	13	0.01
182.90	465	0.47
183.90	84	0.08
184.90	2199	2.20
185.90	8977	8.98
186.90	11673	11.68
187.90	9698	9.70
188.90	9031	9.03
189.90	742	0.74
190.90	73	0.07
191.90	6	0.01
192.90	26	0.03
193.90	11	0.01
194.90	39	0.04
195.90	26	0.03
197.90	41	0.04
198.90	217	0.22
199.90	385	0.39
200.85	458	0.46
201.90	327	0.33
202.90	270	0.27
203.90	3	0.00
204.90	26	0.03
205.90	10	0.01
206.90	33	0.03
207.90	42	0.04
208.90	5	0.01
210.90	2	0.00
211.90	19	0.02
212.90	132	0.13
213.90	71	0.07
214.95	3817	3.82
215.90	99982	100.00
216.95	11815	11.82
217.90	98866	98.88
218.90	8961	8.96
219.90	730	0.73
220.90	49	0.05
221.90	24	0.02
222.90	16	0.02
224.90	24	0.02
226.90	26	0.03
227.90	18	0.02
228.90	19	0.02
229.90	30	0.03
231.90	27	0.03
232.90	8	0.01
234.90	10	0.01
236.90	33	0.03
237.90	10	0.01
238.90	3	0.00
239.90	11	0.01
241.90	39	0.04
242.90	16	0.02
243.90	10	0.01
244.90	26	0.03
245.90	18	0.02
246.90	38	0.04
247.90	34	0.03
248.90	13	0.01
249.90	19	0.02
250.90	27	0.03
251.90	6	0.01
252.90	19	0.02
253.90	42	0.04
254.90	46	0.05
255.90	31	0.03
256.90	29	0.03
257.90	26	0.03
259.90	11	0.01
260.90	8	0.01
261.90	34	0.03
262.90	22	0.02
264.90	22	0.02
265.90	21	0.02
266.90	16	0.02
267.90	5	0.01
268.90	27	0.03
269.90	33	0.03
270.90	41	0.04
271.90	34	0.03
272.90	13	0.01
273.90	18	0.02
274.90	27	0.03
275.90	3	0.00
276.90	14	0.01
277.90	18	0.02
279.90	22	0.02
280.90	3	0.00
281.90	8	0.01
283.90	3	0.00
284.90	38	0.04
285.90	18	0.02
286.90	34	0.03
287.90	44	0.04
288.90	16	0.02
289.90	24	0.02
290.90	13	0.01
291.90	3	0.00
292.90	39	0.04
293.90	10	0.01
294.90	41	0.04
295.90	14	0.01
299.90	11	0.01
300.90	14	0.01
301.90	30	0.03
302.90	5	0.01
303.90	8	0.01
304.90	29	0.03
305.90	5	0.01
306.90	42	0.04
308.90	16	0.02
309.90	30	0.03
310.90	3	0.00
311.90	62	0.06
312.90	11	0.01
313.90	19	0.02
314.90	8	0.01
316.90	14	0.01
317.90	26	0.03
318.90	13	0.01
319.90	14	0.01
320.90	3	0.00
321.90	41	0.04
322.90	27	0.03
323.90	11	0.01
324.90	29	0.03
326.90	44	0.04
328.90	13	0.01
329.90	54	0.05
330.90	27	0.03
331.90	11	0.01
332.90	30	0.03
333.90	8	0.01
334.90	16	0.02
336.90	27	0.03
337.90	2	0.00
338.90	26	0.03
339.90	27	0.03
341.90	3	0.00
342.90	10	0.01
343.90	19	0.02
344.90	50	0.05
345.90	8	0.01
346.90	31	0.03
347.90	5	0.01
348.90	13	0.01
349.90	16	0.02
350.90	18	0.02
351.90	33	0.03
353.90	22	0.02
355.90	6	0.01
356.90	18	0.02
357.90	14	0.01
358.90	5	0.01
359.90	22	0.02
360.90	13	0.01
361.90	21	0.02
362.90	21	0.02
363.90	21	0.02
364.90	29	0.03
365.90	6	0.01
366.90	29	0.03
367.90	5	0.01
368.90	11	0.01
370.90	13	0.01
371.90	29	0.03
372.90	2	0.00
373.90	8	0.01
374.90	29	0.03
375.90	29	0.03
376.90	27	0.03
378.90	31	0.03
381.90	39	0.04
382.90	26	0.03
383.90	11	0.01
384.90	27	0.03
385.90	3	0.00
386.90	26	0.03
387.90	22	0.02
388.90	24	0.02
389.90	11	0.01
390.90	16	0.02
391.90	27	0.03
393.90	11	0.01
394.90	21	0.02
395.90	18	0.02
396.90	14	0.01
397.90	3	0.00
398.90	5	0.01
400.90	2	0.00
401.90	10	0.01
402.90	26	0.03
403.90	30	0.03
404.90	13	0.01
405.90	11	0.01
406.90	29	0.03
407.90	10	0.01
408.90	26	0.03
409.90	22	0.02
410.90	11	0.01
411.90	33	0.03
413.90	14	0.01
414.90	22	0.02
415.90	2	0.00
416.90	14	0.01
417.90	11	0.01
418.90	19	0.02
419.90	21	0.02
420.90	3	0.00
421.90	11	0.01
423.90	22	0.02
424.90	22	0.02
425.90	50	0.05
426.90	41	0.04
427.90	14	0.01
428.90	44	0.04
429.90	21	0.02
430.90	14	0.01
431.90	5	0.01
432.90	6	0.01
434.90	14	0.01
436.90	31	0.03
438.90	26	0.03
439.90	13	0.01
440.90	11	0.01
441.90	34	0.03
443.90	47	0.05
444.90	16	0.02
445.90	34	0.03
446.90	8	0.01
448.90	22	0.02
449.90	3	0.00
450.90	16	0.02
451.90	22	0.02
452.90	5	0.01
453.90	24	0.02
454.90	14	0.01
456.90	18	0.02
458.90	18	0.02
459.90	16	0.02
461.90	10	0.01
462.90	19	0.02
465.90	6	0.01
466.90	10	0.01
467.90	14	0.01
468.90	30	0.03
469.90	19	0.02
470.90	18	0.02
471.90	24	0.02
472.90	19	0.02
473.90	42	0.04
474.90	10	0.01
475.90	29	0.03
476.90	29	0.03
477.90	6	0.01
478.90	10	0.01
479.90	18	0.02
480.90	26	0.03
481.90	24	0.02
482.90	29	0.03
483.90	34	0.03
485.90	10	0.01
487.90	10	0.01
488.90	19	0.02
489.90	8	0.01
490.90	22	0.02
491.90	26	0.03
493.90	16	0.02
494.90	19	0.02
495.90	10	0.01
496.90	22	0.02
497.90	2	0.00
499.90	6	0.01
